# coating file for detector A/R
# column 1 is the angle of incidence (degrees)
# column 2 is the wavelength (microns)
# column 3 is the transmission probability
# column 4 is the reflection probability
      0.00000     0.300000     0.234640     0.765360
      0.00000     0.301000     0.246430     0.753570
      0.00000     0.302000     0.258920     0.741080
      0.00000     0.303000     0.272150     0.727850
      0.00000     0.304000     0.286140     0.713860
      0.00000     0.305000     0.306570     0.693430
      0.00000     0.306000     0.320920     0.679080
      0.00000     0.307000     0.335970     0.664030
      0.00000     0.308000     0.351730     0.648270
      0.00000     0.309000     0.368200     0.631800
      0.00000     0.310000     0.393210     0.606790
      0.00000     0.311000     0.409300     0.590700
      0.00000     0.312000     0.425910     0.574090
      0.00000     0.313000     0.442990     0.557010
      0.00000     0.314000     0.460520     0.539480
      0.00000     0.315000     0.488150     0.511850
      0.00000     0.316000     0.504490     0.495510
      0.00000     0.317000     0.520940     0.479060
      0.00000     0.318000     0.537450     0.462550
      0.00000     0.319000     0.553950     0.446050
      0.00000     0.320000     0.581030     0.418970
      0.00000     0.321000     0.594720     0.405280
      0.00000     0.322000     0.608080     0.391920
      0.00000     0.323000     0.621030     0.378970
      0.00000     0.324000     0.633530     0.366470
      0.00000     0.325000     0.655740     0.344260
      0.00000     0.326000     0.665010     0.334990
      0.00000     0.327000     0.673650     0.326350
      0.00000     0.328000     0.681620     0.318380
      0.00000     0.329000     0.688930     0.311070
      0.00000     0.330000     0.704150     0.295850
      0.00000     0.331000     0.708170     0.291830
      0.00000     0.332000     0.711520     0.288480
      0.00000     0.333000     0.714250     0.285750
      0.00000     0.334000     0.716380     0.283620
      0.00000     0.335000     0.724310     0.275690
      0.00000     0.336000     0.723890     0.276110
      0.00000     0.337000     0.723020     0.276980
      0.00000     0.338000     0.721760     0.278240
      0.00000     0.339000     0.720150     0.279850
      0.00000     0.340000     0.722570     0.277430
      0.00000     0.341000     0.718800     0.281200
      0.00000     0.342000     0.714830     0.285170
      0.00000     0.343000     0.710690     0.289310
      0.00000     0.344000     0.706420     0.293580
      0.00000     0.345000     0.704740     0.295260
      0.00000     0.346000     0.699670     0.300330
      0.00000     0.347000     0.694610     0.305390
      0.00000     0.348000     0.689570     0.310430
      0.00000     0.349000     0.684590     0.315410
      0.00000     0.350000     0.681250     0.318750
      0.00000     0.351000     0.674580     0.325420
      0.00000     0.352000     0.668030     0.331970
      0.00000     0.353000     0.661620     0.338380
      0.00000     0.354000     0.655360     0.344640
      0.00000     0.355000     0.650090     0.349910
      0.00000     0.356000     0.643960     0.356040
      0.00000     0.357000     0.638030     0.361970
      0.00000     0.358000     0.632300     0.367700
      0.00000     0.359000     0.626770     0.373230
      0.00000     0.360000     0.621820     0.378180
      0.00000     0.361000     0.618370     0.381630
      0.00000     0.362000     0.614920     0.385080
      0.00000     0.363000     0.611480     0.388520
      0.00000     0.364000     0.608070     0.391930
      0.00000     0.365000     0.604360     0.395640
      0.00000     0.366000     0.601060     0.398940
      0.00000     0.367000     0.597780     0.402220
      0.00000     0.368000     0.594550     0.405450
      0.00000     0.369000     0.591350     0.408650
      0.00000     0.370000     0.587570     0.412430
      0.00000     0.371000     0.590740     0.409260
      0.00000     0.372000     0.594030     0.405970
      0.00000     0.373000     0.597410     0.402590
      0.00000     0.374000     0.600890     0.399110
      0.00000     0.375000     0.603940     0.396060
      0.00000     0.376000     0.607660     0.392340
      0.00000     0.377000     0.611450     0.388550
      0.00000     0.378000     0.615290     0.384710
      0.00000     0.379000     0.619170     0.380830
      0.00000     0.380000     0.622650     0.377350
      0.00000     0.381000     0.625490     0.374510
      0.00000     0.382000     0.628450     0.371550
      0.00000     0.383000     0.631520     0.368480
      0.00000     0.384000     0.634700     0.365300
      0.00000     0.385000     0.637630     0.362370
      0.00000     0.386000     0.641090     0.358910
      0.00000     0.387000     0.644690     0.355310
      0.00000     0.388000     0.648450     0.351550
      0.00000     0.389000     0.652520     0.347480
      0.00000     0.390000     0.655860     0.344140
      0.00000     0.391000     0.660100     0.339900
      0.00000     0.392000     0.664260     0.335740
      0.00000     0.393000     0.667380     0.332620
      0.00000     0.394000     0.671900     0.328100
      0.00000     0.395000     0.676390     0.323610
      0.00000     0.396000     0.681020     0.318980
      0.00000     0.397000     0.685700     0.314300
      0.00000     0.398000     0.690440     0.309560
      0.00000     0.399000     0.695220     0.304780
      0.00000     0.400000     0.699860     0.300140
      0.00000     0.401000     0.704310     0.295690
      0.00000     0.402000     0.708790     0.291210
      0.00000     0.403000     0.713310     0.286690
      0.00000     0.404000     0.717860     0.282140
      0.00000     0.405000     0.722280     0.277720
      0.00000     0.406000     0.726890     0.273110
      0.00000     0.407000     0.731530     0.268470
      0.00000     0.408000     0.736190     0.263810
      0.00000     0.409000     0.740860     0.259140
      0.00000     0.410000     0.745410     0.254590
      0.00000     0.411000     0.747650     0.252350
      0.00000     0.412000     0.749900     0.250100
      0.00000     0.413000     0.752140     0.247860
      0.00000     0.414000     0.754380     0.245620
      0.00000     0.415000     0.756510     0.243490
      0.00000     0.416000     0.758750     0.241250
      0.00000     0.417000     0.760990     0.239010
      0.00000     0.418000     0.763220     0.236780
      0.00000     0.419000     0.765440     0.234560
      0.00000     0.420000     0.767540     0.232460
      0.00000     0.421000     0.770290     0.229710
      0.00000     0.422000     0.773040     0.226960
      0.00000     0.423000     0.775760     0.224240
      0.00000     0.424000     0.778470     0.221530
      0.00000     0.425000     0.781060     0.218940
      0.00000     0.426000     0.783720     0.216280
      0.00000     0.427000     0.786370     0.213630
      0.00000     0.428000     0.788990     0.211010
      0.00000     0.429000     0.791580     0.208420
      0.00000     0.430000     0.794070     0.205930
      0.00000     0.431000     0.796250     0.203750
      0.00000     0.432000     0.798400     0.201600
      0.00000     0.433000     0.800520     0.199480
      0.00000     0.434000     0.802620     0.197380
      0.00000     0.435000     0.804610     0.195390
      0.00000     0.436000     0.806650     0.193350
      0.00000     0.437000     0.808650     0.191350
      0.00000     0.438000     0.810630     0.189370
      0.00000     0.439000     0.812580     0.187420
      0.00000     0.440000     0.814420     0.185580
      0.00000     0.441000     0.816090     0.183910
      0.00000     0.442000     0.817740     0.182260
      0.00000     0.443000     0.819350     0.180650
      0.00000     0.444000     0.820930     0.179070
      0.00000     0.445000     0.822420     0.177580
      0.00000     0.446000     0.823940     0.176060
      0.00000     0.447000     0.825420     0.174580
      0.00000     0.448000     0.826880     0.173120
      0.00000     0.449000     0.828300     0.171700
      0.00000     0.450000     0.829630     0.170370
      0.00000     0.451000     0.830860     0.169140
      0.00000     0.452000     0.832050     0.167950
      0.00000     0.453000     0.833220     0.166780
      0.00000     0.454000     0.834360     0.165640
      0.00000     0.455000     0.835410     0.164590
      0.00000     0.456000     0.836490     0.163510
      0.00000     0.457000     0.837550     0.162450
      0.00000     0.458000     0.838570     0.161430
      0.00000     0.459000     0.839570     0.160430
      0.00000     0.460000     0.840490     0.159510
      0.00000     0.461000     0.841430     0.158570
      0.00000     0.462000     0.842350     0.157650
      0.00000     0.463000     0.843240     0.156760
      0.00000     0.464000     0.844100     0.155900
      0.00000     0.465000     0.844900     0.155100
      0.00000     0.466000     0.845710     0.154290
      0.00000     0.467000     0.846500     0.153500
      0.00000     0.468000     0.847270     0.152730
      0.00000     0.469000     0.848010     0.151990
      0.00000     0.470000     0.848690     0.151310
      0.00000     0.471000     0.849500     0.150500
      0.00000     0.472000     0.850290     0.149710
      0.00000     0.473000     0.851050     0.148950
      0.00000     0.474000     0.851800     0.148200
      0.00000     0.475000     0.852480     0.147520
      0.00000     0.476000     0.853190     0.146810
      0.00000     0.477000     0.853870     0.146130
      0.00000     0.478000     0.854530     0.145470
      0.00000     0.479000     0.855180     0.144820
      0.00000     0.480000     0.855770     0.144230
      0.00000     0.481000     0.856380     0.143620
      0.00000     0.482000     0.856980     0.143020
      0.00000     0.483000     0.857550     0.142450
      0.00000     0.484000     0.858110     0.141890
      0.00000     0.485000     0.858620     0.141380
      0.00000     0.486000     0.859160     0.140840
      0.00000     0.487000     0.859670     0.140330
      0.00000     0.488000     0.860180     0.139820
      0.00000     0.489000     0.860670     0.139330
      0.00000     0.490000     0.861120     0.138880
      0.00000     0.491000     0.861310     0.138690
      0.00000     0.492000     0.861480     0.138520
      0.00000     0.493000     0.861640     0.138360
      0.00000     0.494000     0.861800     0.138200
      0.00000     0.495000     0.861910     0.138090
      0.00000     0.496000     0.862040     0.137960
      0.00000     0.497000     0.862160     0.137840
      0.00000     0.498000     0.862280     0.137720
      0.00000     0.499000     0.862380     0.137620
      0.00000     0.500000     0.862450     0.137550
      0.00000     0.501000     0.862250     0.137750
      0.00000     0.502000     0.862030     0.137970
      0.00000     0.503000     0.861800     0.138200
      0.00000     0.504000     0.861570     0.138430
      0.00000     0.505000     0.861300     0.138700
      0.00000     0.506000     0.861060     0.138940
      0.00000     0.507000     0.860810     0.139190
      0.00000     0.508000     0.860550     0.139450
      0.00000     0.509000     0.860290     0.139710
      0.00000     0.510000     0.860000     0.140000
      0.00000     0.511000     0.860020     0.139980
      0.00000     0.512000     0.860030     0.139970
      0.00000     0.513000     0.860050     0.139950
      0.00000     0.514000     0.860060     0.139940
      0.00000     0.515000     0.860040     0.139960
      0.00000     0.516000     0.860050     0.139950
      0.00000     0.517000     0.860050     0.139950
      0.00000     0.518000     0.860050     0.139950
      0.00000     0.519000     0.860060     0.139940
      0.00000     0.520000     0.860030     0.139970
      0.00000     0.521000     0.859730     0.140270
      0.00000     0.522000     0.859430     0.140570
      0.00000     0.523000     0.859130     0.140870
      0.00000     0.524000     0.858830     0.141170
      0.00000     0.525000     0.858510     0.141490
      0.00000     0.526000     0.858200     0.141800
      0.00000     0.527000     0.857900     0.142100
      0.00000     0.528000     0.857590     0.142410
      0.00000     0.529000     0.857290     0.142710
      0.00000     0.530000     0.856960     0.143040
      0.00000     0.531000     0.857270     0.142730
      0.00000     0.532000     0.857580     0.142420
      0.00000     0.533000     0.857890     0.142110
      0.00000     0.534000     0.858200     0.141800
      0.00000     0.535000     0.858500     0.141500
      0.00000     0.536000     0.858820     0.141180
      0.00000     0.537000     0.859140     0.140860
      0.00000     0.538000     0.859470     0.140530
      0.00000     0.539000     0.859790     0.140210
      0.00000     0.540000     0.860110     0.139890
      0.00000     0.541000     0.859830     0.140170
      0.00000     0.542000     0.859560     0.140440
      0.00000     0.543000     0.859280     0.140720
      0.00000     0.544000     0.859010     0.140990
      0.00000     0.545000     0.858730     0.141270
      0.00000     0.546000     0.858470     0.141530
      0.00000     0.547000     0.858210     0.141790
      0.00000     0.548000     0.857950     0.142050
      0.00000     0.549000     0.857700     0.142300
      0.00000     0.550000     0.857430     0.142570
      0.00000     0.551000     0.857490     0.142510
      0.00000     0.552000     0.857560     0.142440
      0.00000     0.553000     0.857630     0.142370
      0.00000     0.554000     0.857700     0.142300
      0.00000     0.555000     0.857770     0.142230
      0.00000     0.556000     0.857850     0.142150
      0.00000     0.557000     0.857940     0.142060
      0.00000     0.558000     0.858030     0.141970
      0.00000     0.559000     0.858130     0.141870
      0.00000     0.560000     0.858220     0.141780
      0.00000     0.561000     0.858020     0.141980
      0.00000     0.562000     0.857820     0.142180
      0.00000     0.563000     0.857630     0.142370
      0.00000     0.564000     0.857440     0.142560
      0.00000     0.565000     0.857240     0.142760
      0.00000     0.566000     0.857070     0.142930
      0.00000     0.567000     0.856890     0.143110
      0.00000     0.568000     0.856730     0.143270
      0.00000     0.569000     0.856560     0.143440
      0.00000     0.570000     0.856390     0.143610
      0.00000     0.571000     0.856550     0.143450
      0.00000     0.572000     0.856710     0.143290
      0.00000     0.573000     0.856880     0.143120
      0.00000     0.574000     0.857050     0.142950
      0.00000     0.575000     0.857220     0.142780
      0.00000     0.576000     0.857400     0.142600
      0.00000     0.577000     0.857590     0.142410
      0.00000     0.578000     0.857780     0.142220
      0.00000     0.579000     0.857980     0.142020
      0.00000     0.580000     0.858170     0.141830
      0.00000     0.581000     0.858070     0.141930
      0.00000     0.582000     0.857980     0.142020
      0.00000     0.583000     0.857890     0.142110
      0.00000     0.584000     0.857800     0.142200
      0.00000     0.585000     0.857710     0.142290
      0.00000     0.586000     0.857640     0.142360
      0.00000     0.587000     0.857570     0.142430
      0.00000     0.588000     0.857500     0.142500
      0.00000     0.589000     0.857440     0.142560
      0.00000     0.590000     0.857380     0.142620
      0.00000     0.591000     0.857660     0.142340
      0.00000     0.592000     0.857940     0.142060
      0.00000     0.593000     0.858220     0.141780
      0.00000     0.594000     0.858510     0.141490
      0.00000     0.595000     0.858800     0.141200
      0.00000     0.596000     0.859100     0.140900
      0.00000     0.597000     0.859400     0.140600
      0.00000     0.598000     0.859710     0.140290
      0.00000     0.599000     0.860030     0.139970
      0.00000     0.600000     0.860330     0.139670
      0.00000     0.601000     0.860350     0.139650
      0.00000     0.602000     0.860360     0.139640
      0.00000     0.603000     0.860380     0.139620
      0.00000     0.604000     0.860410     0.139590
      0.00000     0.605000     0.860430     0.139570
      0.00000     0.606000     0.860470     0.139530
      0.00000     0.607000     0.860510     0.139490
      0.00000     0.608000     0.860550     0.139450
      0.00000     0.609000     0.860600     0.139400
      0.00000     0.610000     0.860650     0.139350
      0.00000     0.611000     0.861010     0.138990
      0.00000     0.612000     0.861380     0.138620
      0.00000     0.613000     0.861750     0.138250
      0.00000     0.614000     0.862130     0.137870
      0.00000     0.615000     0.862500     0.137500
      0.00000     0.616000     0.862890     0.137110
      0.00000     0.617000     0.863270     0.136730
      0.00000     0.618000     0.863670     0.136330
      0.00000     0.619000     0.864060     0.135940
      0.00000     0.620000     0.864450     0.135550
      0.00000     0.621000     0.864730     0.135270
      0.00000     0.622000     0.865020     0.134980
      0.00000     0.623000     0.865310     0.134690
      0.00000     0.624000     0.865600     0.134400
      0.00000     0.625000     0.865900     0.134100
      0.00000     0.626000     0.866200     0.133800
      0.00000     0.627000     0.866500     0.133500
      0.00000     0.628000     0.866810     0.133190
      0.00000     0.629000     0.867120     0.132880
      0.00000     0.630000     0.867430     0.132570
      0.00000     0.631000     0.867690     0.132310
      0.00000     0.632000     0.867960     0.132040
      0.00000     0.633000     0.868220     0.131780
      0.00000     0.634000     0.868490     0.131510
      0.00000     0.635000     0.868760     0.131240
      0.00000     0.636000     0.869040     0.130960
      0.00000     0.637000     0.869320     0.130680
      0.00000     0.638000     0.869610     0.130390
      0.00000     0.639000     0.869890     0.130110
      0.00000     0.640000     0.870180     0.129820
      0.00000     0.641000     0.870360     0.129640
      0.00000     0.642000     0.870540     0.129460
      0.00000     0.643000     0.870730     0.129270
      0.00000     0.644000     0.870920     0.129080
      0.00000     0.645000     0.871110     0.128890
      0.00000     0.646000     0.871300     0.128700
      0.00000     0.647000     0.871510     0.128490
      0.00000     0.648000     0.871710     0.128290
      0.00000     0.649000     0.871920     0.128080
      0.00000     0.650000     0.872120     0.127880
      0.00000     0.651000     0.872450     0.127550
      0.00000     0.652000     0.872780     0.127220
      0.00000     0.653000     0.873110     0.126890
      0.00000     0.654000     0.873440     0.126560
      0.00000     0.655000     0.873770     0.126230
      0.00000     0.656000     0.874110     0.125890
      0.00000     0.657000     0.874450     0.125550
      0.00000     0.658000     0.874790     0.125210
      0.00000     0.659000     0.875140     0.124860
      0.00000     0.660000     0.875480     0.124520
      0.00000     0.661000     0.875780     0.124220
      0.00000     0.662000     0.876070     0.123930
      0.00000     0.663000     0.876370     0.123630
      0.00000     0.664000     0.876670     0.123330
      0.00000     0.665000     0.876980     0.123020
      0.00000     0.666000     0.877280     0.122720
      0.00000     0.667000     0.877590     0.122410
      0.00000     0.668000     0.877900     0.122100
      0.00000     0.669000     0.878210     0.121790
      0.00000     0.670000     0.878530     0.121470
      0.00000     0.671000     0.878850     0.121150
      0.00000     0.672000     0.879190     0.120810
      0.00000     0.673000     0.879520     0.120480
      0.00000     0.674000     0.879850     0.120150
      0.00000     0.675000     0.880180     0.119820
      0.00000     0.676000     0.880520     0.119480
      0.00000     0.677000     0.880860     0.119140
      0.00000     0.678000     0.881200     0.118800
      0.00000     0.679000     0.881540     0.118460
      0.00000     0.680000     0.881890     0.118110
      0.00000     0.681000     0.882230     0.117770
      0.00000     0.682000     0.882580     0.117420
      0.00000     0.683000     0.882930     0.117070
      0.00000     0.684000     0.883280     0.116720
      0.00000     0.685000     0.883620     0.116380
      0.00000     0.686000     0.883970     0.116030
      0.00000     0.687000     0.884330     0.115670
      0.00000     0.688000     0.884680     0.115320
      0.00000     0.689000     0.885040     0.114960
      0.00000     0.690000     0.885390     0.114610
      0.00000     0.691000     0.885750     0.114250
      0.00000     0.692000     0.886100     0.113900
      0.00000     0.693000     0.886460     0.113540
      0.00000     0.694000     0.886820     0.113180
      0.00000     0.695000     0.887170     0.112830
      0.00000     0.696000     0.887530     0.112470
      0.00000     0.697000     0.887900     0.112100
      0.00000     0.698000     0.888260     0.111740
      0.00000     0.699000     0.888620     0.111380
      0.00000     0.700000     0.888980     0.111020
      0.00000     0.701000     0.889340     0.110660
      0.00000     0.702000     0.889690     0.110310
      0.00000     0.703000     0.890050     0.109950
      0.00000     0.704000     0.890410     0.109590
      0.00000     0.705000     0.890770     0.109230
      0.00000     0.706000     0.891130     0.108870
      0.00000     0.707000     0.891490     0.108510
      0.00000     0.708000     0.891850     0.108150
      0.00000     0.709000     0.892210     0.107790
      0.00000     0.710000     0.892570     0.107430
      0.00000     0.711000     0.892920     0.107080
      0.00000     0.712000     0.893280     0.106720
      0.00000     0.713000     0.893640     0.106360
      0.00000     0.714000     0.894000     0.106000
      0.00000     0.715000     0.894350     0.105650
      0.00000     0.716000     0.894710     0.105290
      0.00000     0.717000     0.895070     0.104930
      0.00000     0.718000     0.895430     0.104570
      0.00000     0.719000     0.895780     0.104220
      0.00000     0.720000     0.896140     0.103860
      0.00000     0.721000     0.896500     0.103500
      0.00000     0.722000     0.896860     0.103140
      0.00000     0.723000     0.897220     0.102780
      0.00000     0.724000     0.897580     0.102420
      0.00000     0.725000     0.897940     0.102060
      0.00000     0.726000     0.898300     0.101700
      0.00000     0.727000     0.898660     0.101340
      0.00000     0.728000     0.899020     0.100980
      0.00000     0.729000     0.899370     0.100630
      0.00000     0.730000     0.899730     0.100270
      0.00000     0.731000     0.900090    0.0999100
      0.00000     0.732000     0.900440    0.0995600
      0.00000     0.733000     0.900790    0.0992100
      0.00000     0.734000     0.901150    0.0988500
      0.00000     0.735000     0.901500    0.0985000
      0.00000     0.736000     0.901850    0.0981500
      0.00000     0.737000     0.902200    0.0978000
      0.00000     0.738000     0.902550    0.0974500
      0.00000     0.739000     0.902900    0.0971000
      0.00000     0.740000     0.903250    0.0967500
      0.00000     0.741000     0.903600    0.0964000
      0.00000     0.742000     0.903950    0.0960500
      0.00000     0.743000     0.904300    0.0957000
      0.00000     0.744000     0.904640    0.0953600
      0.00000     0.745000     0.904980    0.0950200
      0.00000     0.746000     0.905330    0.0946700
      0.00000     0.747000     0.905670    0.0943300
      0.00000     0.748000     0.906010    0.0939900
      0.00000     0.749000     0.906350    0.0936500
      0.00000     0.750000     0.906690    0.0933100
      0.00000     0.751000     0.907010    0.0929900
      0.00000     0.752000     0.907340    0.0926600
      0.00000     0.753000     0.907660    0.0923400
      0.00000     0.754000     0.907990    0.0920100
      0.00000     0.755000     0.908300    0.0917000
      0.00000     0.756000     0.908620    0.0913800
      0.00000     0.757000     0.908940    0.0910600
      0.00000     0.758000     0.909349    0.0906510
      0.00000     0.759000     0.909570    0.0904300
      0.00000     0.760000     0.909880    0.0901200
      0.00000     0.761000     0.910190    0.0898100
      0.00000     0.762000     0.910500    0.0895000
      0.00000     0.763000     0.910810    0.0891900
      0.00000     0.764000     0.911110    0.0888900
      0.00000     0.765000     0.911410    0.0885900
      0.00000     0.766000     0.911710    0.0882900
      0.00000     0.767000     0.912199    0.0878010
      0.00000     0.768000     0.912407    0.0875930
      0.00000     0.769000     0.912693    0.0873070
      0.00000     0.770000     0.912981    0.0870190
      0.00000     0.771000     0.913356    0.0866440
      0.00000     0.772000     0.913470    0.0865300
      0.00000     0.773000     0.913750    0.0862500
      0.00000     0.774000     0.914391    0.0856090
      0.00000     0.775000     0.914490    0.0855100
      0.00000     0.776000     0.914761    0.0852390
      0.00000     0.777000     0.914940    0.0850600
      0.00000     0.778000     0.915120    0.0848800
      0.00000     0.779000     0.915480    0.0845200
      0.00000     0.780000     0.915650    0.0843500
      0.00000     0.781000     0.916093    0.0839070
      0.00000     0.782000     0.916160    0.0838400
      0.00000     0.783000     0.916502    0.0834980
      0.00000     0.784000     0.916935    0.0830650
      0.00000     0.785000     0.917268    0.0827320
      0.00000     0.786000     0.917232    0.0827680
      0.00000     0.787000     0.917750    0.0822500
      0.00000     0.788000     0.917796    0.0822040
      0.00000     0.789000     0.918021    0.0819790
      0.00000     0.790000     0.918330    0.0816700
      0.00000     0.791000     0.918563    0.0814370
      0.00000     0.792000     0.919539    0.0804610
      0.00000     0.793000     0.919192    0.0808080
      0.00000     0.794000     0.919213    0.0807870
      0.00000     0.795000     0.919610    0.0803900
      0.00000     0.796000     0.919821    0.0801790
      0.00000     0.797000     0.920105    0.0798950
      0.00000     0.798000     0.921166    0.0788340
      0.00000     0.799000     0.920201    0.0797990
      0.00000     0.800000     0.920863    0.0791370
      0.00000     0.801000     0.920831    0.0791690
      0.00000     0.802000     0.921285    0.0787150
      0.00000     0.803000     0.921638    0.0783620
      0.00000     0.804000     0.921076    0.0789240
      0.00000     0.805000     0.921408    0.0785920
      0.00000     0.806000     0.921762    0.0782380
      0.00000     0.807000     0.922117    0.0778830
      0.00000     0.808000     0.923169    0.0768310
      0.00000     0.809000     0.922865    0.0771350
      0.00000     0.810000     0.922868    0.0771320
      0.00000     0.811000     0.922345    0.0776550
      0.00000     0.812000     0.923668    0.0763320
      0.00000     0.813000     0.923464    0.0765360
      0.00000     0.814000     0.923924    0.0760760
      0.00000     0.815000     0.923254    0.0767460
      0.00000     0.816000     0.924302    0.0756980
      0.00000     0.817000     0.924742    0.0752580
      0.00000     0.818000     0.923493    0.0765070
      0.00000     0.819000     0.923974    0.0760260
      0.00000     0.820000     0.923482    0.0765180
      0.00000     0.821000     0.923793    0.0762070
      0.00000     0.822000     0.924530    0.0754700
      0.00000     0.823000     0.925715    0.0742850
      0.00000     0.824000     0.924519    0.0754810
      0.00000     0.825000     0.925964    0.0740360
      0.00000     0.826000     0.925508    0.0744920
      0.00000     0.827000     0.925422    0.0745780
      0.00000     0.828000     0.925129    0.0748710
      0.00000     0.829000     0.925247    0.0747530
      0.00000     0.830000     0.925191    0.0748090
      0.00000     0.831000     0.926037    0.0739630
      0.00000     0.832000     0.925822    0.0741780
      0.00000     0.833000     0.927032    0.0729680
      0.00000     0.834000     0.925905    0.0740950
      0.00000     0.835000     0.925274    0.0747260
      0.00000     0.836000     0.927145    0.0728550
      0.00000     0.837000     0.926045    0.0739550
      0.00000     0.838000     0.926198    0.0738020
      0.00000     0.839000     0.926903    0.0730970
      0.00000     0.840000     0.927369    0.0726310
      0.00000     0.841000     0.927252    0.0727480
      0.00000     0.842000     0.925231    0.0747690
      0.00000     0.843000     0.926790    0.0732100
      0.00000     0.844000     0.926454    0.0735460
      0.00000     0.845000     0.928656    0.0713440
      0.00000     0.846000     0.928149    0.0718510
      0.00000     0.847000     0.927657    0.0723430
      0.00000     0.848000     0.927738    0.0722620
      0.00000     0.849000     0.927070    0.0729300
      0.00000     0.850000     0.928183    0.0718170
      0.00000     0.851000     0.927401    0.0725990
      0.00000     0.852000     0.929282    0.0707180
      0.00000     0.853000     0.927784    0.0722160
      0.00000     0.854000     0.928630    0.0713700
      0.00000     0.855000     0.926707    0.0732930
      0.00000     0.856000     0.925679    0.0743210
      0.00000     0.857000     0.926479    0.0735210
      0.00000     0.858000     0.927917    0.0720830
      0.00000     0.859000     0.928577    0.0714230
      0.00000     0.860000     0.927330    0.0726700
      0.00000     0.861000     0.928032    0.0719680
      0.00000     0.862000     0.928255    0.0717450
      0.00000     0.863000     0.931532    0.0684680
      0.00000     0.864000     0.928555    0.0714450
      0.00000     0.865000     0.928562    0.0714380
      0.00000     0.866000     0.931204    0.0687960
      0.00000     0.867000     0.928381    0.0716190
      0.00000     0.868000     0.929223    0.0707770
      0.00000     0.869000     0.928757    0.0712430
      0.00000     0.870000     0.929256    0.0707440
      0.00000     0.871000     0.933150    0.0668500
      0.00000     0.872000     0.926456    0.0735440
      0.00000     0.873000     0.930388    0.0696120
      0.00000     0.874000     0.932731    0.0672690
      0.00000     0.875000     0.929491    0.0705090
      0.00000     0.876000     0.932848    0.0671520
      0.00000     0.877000     0.929048    0.0709520
      0.00000     0.878000     0.930390    0.0696100
      0.00000     0.879000     0.930177    0.0698230
      0.00000     0.880000     0.932540    0.0674600
      0.00000     0.881000     0.929209    0.0707910
      0.00000     0.882000     0.927409    0.0725910
      0.00000     0.883000     0.930173    0.0698270
      0.00000     0.884000     0.933180    0.0668200
      0.00000     0.885000     0.931761    0.0682390
      0.00000     0.886000     0.934413    0.0655870
      0.00000     0.887000     0.937198    0.0628020
      0.00000     0.888000     0.931116    0.0688840
      0.00000     0.889000     0.935602    0.0643980
      0.00000     0.890000     0.937414    0.0625860
      0.00000     0.891000     0.932316    0.0676840
      0.00000     0.892000     0.929536    0.0704640
      0.00000     0.893000     0.933287    0.0667130
      0.00000     0.894000     0.939707    0.0602930
      0.00000     0.895000     0.933285    0.0667150
      0.00000     0.896000     0.933996    0.0660040
      0.00000     0.897000     0.933282    0.0667180
      0.00000     0.898000     0.935514    0.0644860
      0.00000     0.899000     0.938855    0.0611450
      0.00000     0.900000     0.936982    0.0630180
      0.00000     0.901000     0.931715    0.0682850
      0.00000     0.902000     0.939233    0.0607670
      0.00000     0.903000     0.939392    0.0606080
      0.00000     0.904000     0.937521    0.0624790
      0.00000     0.905000     0.934727    0.0652730
      0.00000     0.906000     0.936177    0.0638230
      0.00000     0.907000     0.940861    0.0591390
      0.00000     0.908000     0.935065    0.0649350
      0.00000     0.909000     0.937810    0.0621900
      0.00000     0.910000     0.938401    0.0615990
      0.00000     0.911000     0.939056    0.0609440
      0.00000     0.912000     0.941795    0.0582050
      0.00000     0.913000     0.947012    0.0529880
      0.00000     0.914000     0.939646    0.0603540
      0.00000     0.915000     0.935155    0.0648450
      0.00000     0.916000     0.938325    0.0616750
      0.00000     0.917000     0.947869    0.0521310
      0.00000     0.918000     0.945260    0.0547400
      0.00000     0.919000     0.942432    0.0575680
      0.00000     0.920000     0.940532    0.0594680
      0.00000     0.921000     0.936694    0.0633060
      0.00000     0.922000     0.940949    0.0590510
      0.00000     0.923000     0.947540    0.0524600
      0.00000     0.924000     0.947350    0.0526500
      0.00000     0.925000     0.940688    0.0593120
      0.00000     0.926000     0.949797    0.0502030
      0.00000     0.927000     0.936023    0.0639770
      0.00000     0.928000     0.951015    0.0489850
      0.00000     0.929000     0.950447    0.0495530
      0.00000     0.930000     0.955663    0.0443370
      0.00000     0.931000     0.959554    0.0404460
      0.00000     0.932000     0.946463    0.0535370
      0.00000     0.933000     0.946085    0.0539150
      0.00000     0.934000     0.938728    0.0612720
      0.00000     0.935000     0.943321    0.0566790
      0.00000     0.936000     0.954776    0.0452240
      0.00000     0.937000     0.956779    0.0432210
      0.00000     0.938000     0.930287    0.0697130
      0.00000     0.939000     0.947763    0.0522370
      0.00000     0.940000     0.953117    0.0468830
      0.00000     0.941000     0.952583    0.0474170
      0.00000     0.942000     0.949236    0.0507640
      0.00000     0.943000     0.957389    0.0426110
      0.00000     0.944000     0.959338    0.0406620
      0.00000     0.945000     0.959389    0.0406110
      0.00000     0.946000     0.957891    0.0421090
      0.00000     0.947000     0.963510    0.0364900
      0.00000     0.948000     0.971230    0.0287700
      0.00000     0.949000     0.961076    0.0389240
      0.00000     0.950000     0.944133    0.0558670
      0.00000     0.951000     0.961731    0.0382690
      0.00000     0.952000     0.949724    0.0502760
      0.00000     0.953000     0.971312    0.0286880
      0.00000     0.954000     0.968514    0.0314860
      0.00000     0.955000     0.962060    0.0379400
      0.00000     0.956000     0.963668    0.0363320
      0.00000     0.957000     0.970591    0.0294090
      0.00000     0.958000     0.966050    0.0339500
      0.00000     0.959000     0.959111    0.0408890
      0.00000     0.960000     0.961906    0.0380940
      0.00000     0.961000     0.961805    0.0381950
      0.00000     0.962000     0.973937    0.0260630
      0.00000     0.963000     0.965856    0.0341440
      0.00000     0.964000     0.949177    0.0508230
      0.00000     0.965000     0.949010    0.0509900
      0.00000     0.966000     0.986930    0.0130700
      0.00000     0.967000     0.963907    0.0360930
      0.00000     0.968000     0.972694    0.0273060
      0.00000     0.969000     0.968268    0.0317320
      0.00000     0.970000     0.971250    0.0287500
      0.00000     0.971000     0.988076    0.0119240
      0.00000     0.972000     0.966216    0.0337840
      0.00000     0.973000     0.981268    0.0187320
      0.00000     0.974000     0.977678    0.0223220
      0.00000     0.975000     0.982935    0.0170650
      0.00000     0.976000     0.973134    0.0268660
      0.00000     0.977000     0.970937    0.0290630
      0.00000     0.978000     0.974870    0.0251300
      0.00000     0.979000     0.965993    0.0340070
      0.00000     0.980000     0.954954    0.0450460
      0.00000     0.981000     0.975050    0.0249500
      0.00000     0.982000     0.978582    0.0214180
      0.00000     0.983000     0.978412    0.0215880
      0.00000     0.984000     0.978061    0.0219390
      0.00000     0.985000     0.974071    0.0259290
      0.00000     0.986000     0.977962    0.0220380
      0.00000     0.987000     0.985179    0.0148210
      0.00000     0.988000     0.963039    0.0369610
      0.00000     0.989000     0.969556    0.0304440
      0.00000     0.990000     0.956965    0.0430350
      0.00000     0.991000     0.975596    0.0244040
      0.00000     0.992000     0.997133   0.00286698
      0.00000     0.993000     0.967122    0.0328780
      0.00000     0.994000     0.974467    0.0255330
      0.00000     0.995000     0.988318    0.0116820
      0.00000     0.996000     0.980075    0.0199250
      0.00000     0.997000     0.966645    0.0333550
      0.00000     0.998000     0.971094    0.0289060
      0.00000     0.999000     0.983091    0.0169090
      0.00000      1.00000      1.00000      0.00000
      0.00000      1.00100      1.00000      0.00000
      0.00000      1.00200      1.00000      0.00000
      0.00000      1.00300     0.999533  0.000467002
      0.00000      1.00400      1.00000      0.00000
      0.00000      1.00500     0.979361    0.0206390
      0.00000      1.00600     0.969418    0.0305820
      0.00000      1.00700      1.00000      0.00000
      0.00000      1.00800     0.994351   0.00564897
      0.00000      1.00900      1.00000      0.00000
      0.00000      1.01000      1.00000      0.00000
      0.00000      1.01100     0.992320   0.00768000
      0.00000      1.01200      1.00000      0.00000
      0.00000      1.01300     0.992911   0.00708902
      0.00000      1.01400     0.998672   0.00132799
      0.00000      1.01500     0.996836   0.00316399
      0.00000      1.01600      1.00000      0.00000
      0.00000      1.01700     0.989374    0.0106260
      0.00000      1.01800      1.00000      0.00000
      0.00000      1.01900      1.00000      0.00000
      0.00000      1.02000      1.00000      0.00000
      0.00000      1.02100      1.00000      0.00000
      0.00000      1.02200      1.00000      0.00000
      0.00000      1.02300      1.00000      0.00000
      0.00000      1.02400      1.00000      0.00000
      0.00000      1.02500      1.00000      0.00000
      0.00000      1.02600      1.00000      0.00000
      0.00000      1.02700      1.00000      0.00000
      0.00000      1.02800      1.00000      0.00000
      0.00000      1.02900      1.00000      0.00000
      0.00000      1.03000      1.00000      0.00000
      0.00000      1.03100      1.00000      0.00000
      0.00000      1.03200      1.00000      0.00000
      0.00000      1.03300      1.00000      0.00000
      0.00000      1.03400      1.00000      0.00000
      0.00000      1.03500      1.00000      0.00000
      0.00000      1.03600      1.00000      0.00000
      0.00000      1.03700      1.00000      0.00000
      0.00000      1.03800      1.00000      0.00000
      0.00000      1.03900      1.00000      0.00000
      0.00000      1.04000      1.00000      0.00000
      0.00000      1.04100      1.00000      0.00000
      0.00000      1.04200      1.00000      0.00000
      0.00000      1.04300      1.00000      0.00000
      0.00000      1.04400      1.00000      0.00000
      0.00000      1.04500      1.00000      0.00000
      0.00000      1.04600      1.00000      0.00000
      0.00000      1.04700      1.00000      0.00000
      0.00000      1.04800      1.00000      0.00000
      0.00000      1.04900      1.00000      0.00000
      0.00000      1.05000      1.00000      0.00000
      0.00000      1.05100      1.00000      0.00000
      0.00000      1.05200      1.00000      0.00000
      0.00000      1.05300      1.00000      0.00000
      0.00000      1.05400      1.00000      0.00000
      0.00000      1.05500      1.00000      0.00000
      0.00000      1.05600      1.00000      0.00000
      0.00000      1.05700      1.00000      0.00000
      0.00000      1.05800      1.00000      0.00000
      0.00000      1.05900      1.00000      0.00000
      0.00000      1.06000      1.00000      0.00000
      0.00000      1.06100      1.00000      0.00000
      0.00000      1.06200      1.00000      0.00000
      0.00000      1.06300      1.00000      0.00000
      0.00000      1.06400      1.00000      0.00000
      0.00000      1.06500      1.00000      0.00000
      0.00000      1.06600      1.00000      0.00000
      0.00000      1.06700      1.00000      0.00000
      0.00000      1.06800      1.00000      0.00000
      0.00000      1.06900      1.00000      0.00000
      0.00000      1.07000      1.00000      0.00000
      0.00000      1.07100      1.00000      0.00000
      0.00000      1.07200      1.00000      0.00000
      0.00000      1.07300      1.00000      0.00000
      0.00000      1.07400      1.00000      0.00000
      0.00000      1.07500      1.00000      0.00000
      0.00000      1.07600      1.00000      0.00000
      0.00000      1.07700      1.00000      0.00000
      0.00000      1.07800      1.00000      0.00000
      0.00000      1.07900      1.00000      0.00000
      0.00000      1.08000      1.00000      0.00000
      0.00000      1.08100      1.00000      0.00000
      0.00000      1.08200      1.00000      0.00000
      0.00000      1.08300      1.00000      0.00000
      0.00000      1.08400      1.00000      0.00000
      0.00000      1.08500      1.00000      0.00000
      0.00000      1.08600      1.00000      0.00000
      0.00000      1.08700      1.00000      0.00000
      0.00000      1.08800      1.00000      0.00000
      0.00000      1.08900      1.00000      0.00000
      0.00000      1.09000      1.00000      0.00000
      0.00000      1.09100      1.00000      0.00000
      0.00000      1.09200      1.00000      0.00000
      0.00000      1.09300      1.00000      0.00000
      0.00000      1.09400      1.00000      0.00000
      0.00000      1.09500      1.00000      0.00000
      0.00000      1.09600      1.00000      0.00000
      0.00000      1.09700      1.00000      0.00000
      0.00000      1.09800      1.00000      0.00000
      0.00000      1.09900      1.00000      0.00000
      0.00000      1.10000      1.00000      0.00000
      0.00000      1.10100      1.00000      0.00000
      0.00000      1.10200      1.00000      0.00000
      0.00000      1.10300      1.00000      0.00000
      0.00000      1.10400      1.00000      0.00000
      0.00000      1.10500      1.00000      0.00000
      0.00000      1.10600      1.00000      0.00000
      0.00000      1.10700      1.00000      0.00000
      0.00000      1.10800      1.00000      0.00000
      0.00000      1.10900      1.00000      0.00000
      0.00000      1.11000      1.00000      0.00000
      0.00000      1.11100      1.00000      0.00000
      0.00000      1.11200      1.00000      0.00000
      0.00000      1.11300      1.00000      0.00000
      0.00000      1.11400      1.00000      0.00000
      0.00000      1.11500      1.00000      0.00000
      0.00000      1.11600      1.00000      0.00000
      0.00000      1.11700      1.00000      0.00000
      0.00000      1.11800      1.00000      0.00000
      0.00000      1.11900      1.00000      0.00000
      0.00000      1.12000      1.00000      0.00000
      0.00000      1.12100      1.00000      0.00000
      0.00000      1.12200      1.00000      0.00000
      0.00000      1.12300      1.00000      0.00000
      0.00000      1.12400      1.00000      0.00000
      0.00000      1.12500      1.00000      0.00000
      0.00000      1.12600      1.00000      0.00000
      0.00000      1.12700      1.00000      0.00000
      0.00000      1.12800      1.00000      0.00000
      0.00000      1.12900      1.00000      0.00000
      0.00000      1.13000      1.00000      0.00000
      0.00000      1.13100      1.00000      0.00000
      0.00000      1.13200      1.00000      0.00000
      0.00000      1.13300      1.00000      0.00000
      0.00000      1.13400      1.00000      0.00000
      0.00000      1.13500      1.00000      0.00000
      0.00000      1.13600      1.00000      0.00000
      0.00000      1.13700      1.00000      0.00000
      0.00000      1.13800      1.00000      0.00000
      0.00000      1.13900      1.00000      0.00000
      0.00000      1.14000      1.00000      0.00000
      0.00000      1.14100      1.00000      0.00000
      0.00000      1.14200      1.00000      0.00000
      0.00000      1.14300      1.00000      0.00000
      0.00000      1.14400      1.00000      0.00000
      0.00000      1.14500      1.00000      0.00000
      0.00000      1.14600      1.00000      0.00000
      0.00000      1.14700      1.00000      0.00000
      0.00000      1.14800      1.00000      0.00000
      0.00000      1.14900      1.00000      0.00000
      0.00000      1.15000      1.00000      0.00000
      0.00000      1.15100      1.00000      0.00000
      0.00000      1.15200      1.00000      0.00000
      0.00000      1.15300      1.00000      0.00000
      0.00000      1.15400      1.00000      0.00000
      0.00000      1.15500      1.00000      0.00000
      0.00000      1.15600      1.00000      0.00000
      0.00000      1.15700      1.00000      0.00000
      0.00000      1.15800      1.00000      0.00000
      0.00000      1.15900      1.00000      0.00000
      0.00000      1.16000      1.00000      0.00000
      0.00000      1.16100      1.00000      0.00000
      0.00000      1.16200      1.00000      0.00000
      0.00000      1.16300      1.00000      0.00000
      0.00000      1.16400      1.00000      0.00000
      0.00000      1.16500      1.00000      0.00000
      0.00000      1.16600      1.00000      0.00000
      0.00000      1.16700      1.00000      0.00000
      0.00000      1.16800      1.00000      0.00000
      0.00000      1.16900      1.00000      0.00000
      0.00000      1.17000      1.00000      0.00000
      0.00000      1.17100      1.00000      0.00000
      0.00000      1.17200      1.00000      0.00000
      0.00000      1.17300      1.00000      0.00000
      0.00000      1.17400      1.00000      0.00000
      0.00000      1.17500      1.00000      0.00000
      0.00000      1.17600      1.00000      0.00000
      0.00000      1.17700      1.00000      0.00000
      0.00000      1.17800      1.00000      0.00000
      0.00000      1.17900      1.00000      0.00000
      0.00000      1.18000      1.00000      0.00000
      0.00000      1.18100      1.00000      0.00000
      0.00000      1.18200      1.00000      0.00000
      0.00000      1.18300      1.00000      0.00000
      0.00000      1.18400      1.00000      0.00000
      0.00000      1.18500      1.00000      0.00000
      0.00000      1.18600      1.00000      0.00000
      0.00000      1.18700      1.00000      0.00000
      0.00000      1.18800      1.00000      0.00000
      0.00000      1.18900      1.00000      0.00000
      0.00000      1.19000      1.00000      0.00000
      0.00000      1.19100      1.00000      0.00000
      0.00000      1.19200      1.00000      0.00000
      0.00000      1.19300      1.00000      0.00000
      0.00000      1.19400      1.00000      0.00000
      0.00000      1.19500      1.00000      0.00000
      0.00000      1.19600      1.00000      0.00000
      0.00000      1.19700      1.00000      0.00000
      0.00000      1.19800      1.00000      0.00000
      0.00000      1.19900      1.00000      0.00000
      0.00000      1.20000      1.00000      0.00000
